Measured on 11:03:24 04/12/2024
Operated by: 	 Ennio Kristof
Comments: 	 
Projectile: 	 Ar

Energy (V): 	4000.000
Extractor (%): 	96.000
Focus 1 (%): 	67.000
Focus 2 (%): 	0.000
Emission (uA): 	10000.000
Pox X (um): 	0.000
Width X (um): 	0.000
Pos Y (um): 	0.000
Width Y (um): 	0.000
Time per dot (us): 	50.000

RFA#: 	2.000
x (mm): 	12.500
y (mm): 	12.500
z (mm): 	30.000
Suppressor voltage (V): 	0.000
Comments: 	 1 ret grid, sup grid

Wien voltage (V): 	135.400

Sweep start (kV): 	0.000
Sweep end (kV): 	4.200
Sweep step (V): 	10.000
Measurement time (s): 	0.100
Integration time (s): 	0.100
PLC: 	5.000
Points per step: 	1.000

Retading voltage (kV)	Mean current FC (A)
0.000E+0	3.681E-10
1.000E-2	3.730E-10
2.000E-2	3.752E-10
3.000E-2	3.779E-10
4.000E-2	3.792E-10
5.000E-2	3.813E-10
6.000E-2	3.841E-10
7.000E-2	3.860E-10
8.000E-2	3.885E-10
9.000E-2	3.896E-10
1.000E-1	3.915E-10
1.100E-1	3.946E-10
1.200E-1	3.957E-10
1.300E-1	3.973E-10
1.400E-1	3.987E-10
1.500E-1	4.004E-10
1.600E-1	4.027E-10
1.700E-1	4.037E-10
1.800E-1	4.053E-10
1.900E-1	4.065E-10
2.000E-1	4.080E-10
2.100E-1	4.094E-10
2.200E-1	4.100E-10
2.300E-1	4.111E-10
2.400E-1	4.131E-10
2.500E-1	4.136E-10
2.600E-1	4.137E-10
2.700E-1	4.152E-10
2.800E-1	4.166E-10
2.900E-1	4.184E-10
3.000E-1	4.181E-10
3.100E-1	4.192E-10
3.200E-1	4.201E-10
3.300E-1	4.213E-10
3.400E-1	4.222E-10
3.500E-1	4.231E-10
3.600E-1	4.242E-10
3.700E-1	4.244E-10
3.800E-1	4.253E-10
3.900E-1	4.263E-10
4.000E-1	4.261E-10
4.100E-1	4.285E-10
4.200E-1	4.281E-10
4.300E-1	4.293E-10
4.400E-1	4.304E-10
4.500E-1	4.304E-10
4.600E-1	4.308E-10
4.700E-1	4.312E-10
4.800E-1	4.320E-10
4.900E-1	4.330E-10
5.000E-1	4.341E-10
5.100E-1	4.342E-10
5.200E-1	4.354E-10
5.300E-1	4.357E-10
5.400E-1	4.368E-10
5.500E-1	4.375E-10
5.600E-1	4.385E-10
5.700E-1	4.387E-10
5.800E-1	4.390E-10
5.900E-1	4.399E-10
6.000E-1	4.406E-10
6.100E-1	4.409E-10
6.200E-1	4.421E-10
6.300E-1	4.425E-10
6.400E-1	4.423E-10
6.500E-1	4.428E-10
6.600E-1	4.440E-10
6.700E-1	4.445E-10
6.800E-1	4.448E-10
6.900E-1	4.458E-10
7.000E-1	4.464E-10
7.100E-1	4.480E-10
7.200E-1	4.470E-10
7.300E-1	4.478E-10
7.400E-1	4.485E-10
7.500E-1	4.491E-10
7.600E-1	4.494E-10
7.700E-1	4.488E-10
7.800E-1	4.492E-10
7.900E-1	4.502E-10
8.000E-1	4.513E-10
8.100E-1	4.510E-10
8.200E-1	4.518E-10
8.300E-1	4.523E-10
8.400E-1	4.518E-10
8.500E-1	4.526E-10
8.600E-1	4.529E-10
8.700E-1	4.529E-10
8.800E-1	4.550E-10
8.900E-1	4.548E-10
9.000E-1	4.551E-10
9.100E-1	4.547E-10
9.200E-1	4.563E-10
9.300E-1	4.557E-10
9.400E-1	4.572E-10
9.500E-1	4.561E-10
9.600E-1	4.575E-10
9.700E-1	4.577E-10
9.800E-1	4.588E-10
9.900E-1	4.581E-10
1.000E+0	4.601E-10
1.010E+0	4.600E-10
1.020E+0	4.608E-10
1.030E+0	4.610E-10
1.040E+0	4.613E-10
1.050E+0	4.616E-10
1.060E+0	4.604E-10
1.070E+0	4.616E-10
1.080E+0	4.627E-10
1.090E+0	4.629E-10
1.100E+0	4.634E-10
1.110E+0	4.632E-10
1.120E+0	4.648E-10
1.130E+0	4.644E-10
1.140E+0	4.656E-10
1.150E+0	4.661E-10
1.160E+0	4.671E-10
1.170E+0	4.676E-10
1.180E+0	4.689E-10
1.190E+0	4.680E-10
1.200E+0	4.685E-10
1.210E+0	4.698E-10
1.220E+0	4.715E-10
1.230E+0	4.712E-10
1.240E+0	4.713E-10
1.250E+0	4.719E-10
1.260E+0	4.726E-10
1.270E+0	4.740E-10
1.280E+0	4.735E-10
1.290E+0	4.745E-10
1.300E+0	4.743E-10
1.310E+0	4.757E-10
1.320E+0	4.761E-10
1.330E+0	4.772E-10
1.340E+0	4.773E-10
1.350E+0	4.779E-10
1.360E+0	4.782E-10
1.370E+0	4.786E-10
1.380E+0	4.799E-10
1.390E+0	4.802E-10
1.400E+0	4.798E-10
1.410E+0	4.797E-10
1.420E+0	4.806E-10
1.430E+0	4.805E-10
1.440E+0	4.821E-10
1.450E+0	4.820E-10
1.460E+0	4.826E-10
1.470E+0	4.830E-10
1.480E+0	4.826E-10
1.490E+0	4.828E-10
1.500E+0	4.835E-10
1.510E+0	4.815E-10
1.520E+0	4.805E-10
1.530E+0	4.796E-10
1.540E+0	4.809E-10
1.550E+0	4.803E-10
1.560E+0	4.802E-10
1.570E+0	4.802E-10
1.580E+0	4.801E-10
1.590E+0	4.806E-10
1.600E+0	4.802E-10
1.610E+0	4.811E-10
1.620E+0	4.815E-10
1.630E+0	4.815E-10
1.640E+0	4.815E-10
1.650E+0	4.824E-10
1.660E+0	4.824E-10
1.670E+0	4.825E-10
1.680E+0	4.823E-10
1.690E+0	4.832E-10
1.700E+0	4.826E-10
1.710E+0	4.830E-10
1.720E+0	4.834E-10
1.730E+0	4.848E-10
1.740E+0	4.839E-10
1.750E+0	4.846E-10
1.760E+0	4.846E-10
1.770E+0	4.853E-10
1.780E+0	4.852E-10
1.790E+0	4.856E-10
1.800E+0	4.858E-10
1.810E+0	4.855E-10
1.820E+0	4.858E-10
1.830E+0	4.854E-10
1.840E+0	4.856E-10
1.850E+0	4.866E-10
1.860E+0	4.869E-10
1.870E+0	4.862E-10
1.880E+0	4.874E-10
1.890E+0	4.875E-10
1.900E+0	4.872E-10
1.910E+0	4.880E-10
1.920E+0	4.877E-10
1.930E+0	4.876E-10
1.940E+0	4.882E-10
1.950E+0	4.881E-10
1.960E+0	4.876E-10
1.970E+0	4.877E-10
1.980E+0	4.884E-10
1.990E+0	4.884E-10
2.000E+0	4.877E-10
2.010E+0	4.880E-10
2.020E+0	4.883E-10
2.030E+0	4.882E-10
2.040E+0	4.895E-10
2.050E+0	4.884E-10
2.060E+0	4.891E-10
2.070E+0	4.901E-10
2.080E+0	4.896E-10
2.090E+0	4.902E-10
2.100E+0	4.900E-10
2.110E+0	4.896E-10
2.120E+0	4.915E-10
2.130E+0	4.919E-10
2.140E+0	4.910E-10
2.150E+0	4.923E-10
2.160E+0	4.935E-10
2.170E+0	4.931E-10
2.180E+0	4.947E-10
2.190E+0	4.947E-10
2.200E+0	4.944E-10
2.210E+0	4.952E-10
2.220E+0	4.948E-10
2.230E+0	4.955E-10
2.240E+0	4.953E-10
2.250E+0	4.960E-10
2.260E+0	4.962E-10
2.270E+0	4.958E-10
2.280E+0	4.966E-10
2.290E+0	4.963E-10
2.300E+0	4.971E-10
2.310E+0	4.956E-10
2.320E+0	4.957E-10
2.330E+0	4.973E-10
2.340E+0	4.971E-10
2.350E+0	4.959E-10
2.360E+0	4.962E-10
2.370E+0	4.973E-10
2.380E+0	4.967E-10
2.390E+0	4.958E-10
2.400E+0	4.963E-10
2.410E+0	4.972E-10
2.420E+0	4.959E-10
2.430E+0	4.958E-10
2.440E+0	4.971E-10
2.450E+0	4.961E-10
2.460E+0	4.956E-10
2.470E+0	4.972E-10
2.480E+0	4.964E-10
2.490E+0	4.969E-10
2.500E+0	4.964E-10
2.510E+0	4.973E-10
2.520E+0	4.978E-10
2.530E+0	4.977E-10
2.540E+0	4.987E-10
2.550E+0	4.990E-10
2.560E+0	4.999E-10
2.570E+0	4.997E-10
2.580E+0	5.003E-10
2.590E+0	5.004E-10
2.600E+0	5.004E-10
2.610E+0	5.007E-10
2.620E+0	5.033E-10
2.630E+0	5.032E-10
2.640E+0	5.045E-10
2.650E+0	5.045E-10
2.660E+0	5.051E-10
2.670E+0	5.046E-10
2.680E+0	5.063E-10
2.690E+0	5.073E-10
2.700E+0	5.085E-10
2.710E+0	5.078E-10
2.720E+0	5.093E-10
2.730E+0	5.110E-10
2.740E+0	5.109E-10
2.750E+0	5.113E-10
2.760E+0	5.116E-10
2.770E+0	5.116E-10
2.780E+0	5.109E-10
2.790E+0	5.118E-10
2.800E+0	5.130E-10
2.810E+0	5.127E-10
2.820E+0	5.137E-10
2.830E+0	5.158E-10
2.840E+0	5.171E-10
2.850E+0	5.189E-10
2.860E+0	5.197E-10
2.870E+0	5.206E-10
2.880E+0	5.233E-10
2.890E+0	5.254E-10
2.900E+0	5.261E-10
2.910E+0	5.283E-10
2.920E+0	5.302E-10
2.930E+0	5.326E-10
2.940E+0	5.355E-10
2.950E+0	5.367E-10
2.960E+0	5.379E-10
2.970E+0	5.400E-10
2.980E+0	5.411E-10
2.990E+0	5.416E-10
3.000E+0	5.441E-10
3.010E+0	5.452E-10
3.020E+0	5.462E-10
3.030E+0	5.478E-10
3.040E+0	5.497E-10
3.050E+0	5.503E-10
3.060E+0	5.519E-10
3.070E+0	5.538E-10
3.080E+0	5.530E-10
3.090E+0	5.533E-10
3.100E+0	5.538E-10
3.110E+0	5.551E-10
3.120E+0	5.548E-10
3.130E+0	5.565E-10
3.140E+0	5.596E-10
3.150E+0	5.609E-10
3.160E+0	5.611E-10
3.170E+0	5.642E-10
3.180E+0	5.657E-10
3.190E+0	5.680E-10
3.200E+0	5.698E-10
3.210E+0	5.722E-10
3.220E+0	5.733E-10
3.230E+0	5.753E-10
3.240E+0	5.777E-10
3.250E+0	5.778E-10
3.260E+0	5.798E-10
3.270E+0	5.811E-10
3.280E+0	5.827E-10
3.290E+0	5.840E-10
3.300E+0	5.833E-10
3.310E+0	5.859E-10
3.320E+0	5.882E-10
3.330E+0	5.887E-10
3.340E+0	5.899E-10
3.350E+0	5.913E-10
3.360E+0	5.937E-10
3.370E+0	5.944E-10
3.380E+0	5.966E-10
3.390E+0	5.975E-10
3.400E+0	5.981E-10
3.410E+0	6.006E-10
3.420E+0	6.014E-10
3.430E+0	6.045E-10
3.440E+0	6.053E-10
3.450E+0	6.067E-10
3.460E+0	6.077E-10
3.470E+0	6.107E-10
3.480E+0	6.109E-10
3.490E+0	6.142E-10
3.500E+0	6.162E-10
3.510E+0	6.175E-10
3.520E+0	6.191E-10
3.530E+0	6.209E-10
3.540E+0	6.227E-10
3.550E+0	6.278E-10
3.560E+0	6.302E-10
3.570E+0	6.344E-10
3.580E+0	6.361E-10
3.590E+0	6.391E-10
3.600E+0	6.419E-10
3.610E+0	6.445E-10
3.620E+0	6.488E-10
3.630E+0	6.515E-10
3.640E+0	6.536E-10
3.650E+0	6.549E-10
3.660E+0	6.560E-10
3.670E+0	6.576E-10
3.680E+0	6.590E-10
3.690E+0	6.606E-10
3.700E+0	6.617E-10
3.710E+0	6.642E-10
3.720E+0	6.654E-10
3.730E+0	6.690E-10
3.740E+0	6.719E-10
3.750E+0	6.717E-10
3.760E+0	6.757E-10
3.770E+0	6.786E-10
3.780E+0	6.779E-10
3.790E+0	6.827E-10
3.800E+0	6.860E-10
3.810E+0	6.895E-10
3.820E+0	6.942E-10
3.830E+0	6.962E-10
3.840E+0	7.021E-10
3.850E+0	7.071E-10
3.860E+0	7.097E-10
3.870E+0	7.123E-10
3.880E+0	7.176E-10
3.890E+0	7.205E-10
3.900E+0	7.231E-10
3.910E+0	7.275E-10
3.920E+0	7.253E-10
3.930E+0	7.243E-10
3.940E+0	7.156E-10
3.950E+0	7.027E-10
3.960E+0	6.785E-10
3.970E+0	6.465E-10
3.980E+0	6.087E-10
3.990E+0	5.656E-10
4.000E+0	5.177E-10
4.010E+0	4.686E-10
4.020E+0	4.162E-10
4.030E+0	3.600E-10
4.040E+0	2.968E-10
4.050E+0	2.346E-10
4.060E+0	1.781E-10
4.070E+0	1.248E-10
4.080E+0	7.554E-11
4.090E+0	3.715E-11
4.100E+0	9.983E-12
4.110E+0	-8.498E-12
4.120E+0	-1.391E-11
4.130E+0	-1.415E-11
4.140E+0	-1.429E-11
4.150E+0	-1.416E-11
4.160E+0	-1.387E-11
4.170E+0	-1.364E-11
4.180E+0	-1.369E-11
4.190E+0	-1.364E-11
4.200E+0	-1.352E-11
