Measured on 11:17:41 27/11/2024
Operated by: 	Ennio Kristof
Comments: 	 
Projectile: 	 Ar

Energy (V): 	4000.000
Extractor (%): 	96.000
Focus 1 (%): 	68.000
Focus 2 (%): 	0.000
Emission (uA): 	10000.000
Pox X (um): 	0.000
Width X (um): 	0.000
Pos Y (um): 	0.000
Width Y (um): 	0.000
Time per dot (us): 	50.000

RFA#: 	2.000
x (mm): 	12.500
y (mm): 	12.500
z (mm): 	30.000
Suppressor voltage (V): 	-100.000
Comments: 	 2 retard grids, and supp grid.

Wien voltage (V): 	135.400

Sweep start (kV): 	3.500
Sweep end (kV): 	4.200
Sweep step (V): 	1.000
Measurement time (s): 	0.100
Integration time (s): 	0.100
PLC: 	5.000
Points per step: 	1.000

Retading voltage (kV)	Mean current FC (A)
3.500E+0	2.800E-10
3.501E+0	2.605E-10
3.502E+0	2.608E-10
3.503E+0	2.610E-10
3.504E+0	2.606E-10
3.505E+0	2.606E-10
3.506E+0	2.610E-10
3.507E+0	2.608E-10
3.508E+0	2.608E-10
3.509E+0	2.612E-10
3.510E+0	2.610E-10
3.511E+0	2.607E-10
3.512E+0	2.609E-10
3.513E+0	2.613E-10
3.514E+0	2.611E-10
3.515E+0	2.606E-10
3.516E+0	2.611E-10
3.517E+0	2.615E-10
3.518E+0	2.611E-10
3.519E+0	2.608E-10
3.520E+0	2.613E-10
3.521E+0	2.616E-10
3.522E+0	2.610E-10
3.523E+0	2.612E-10
3.524E+0	2.616E-10
3.525E+0	2.611E-10
3.526E+0	2.609E-10
3.527E+0	2.610E-10
3.528E+0	2.611E-10
3.529E+0	2.606E-10
3.530E+0	2.609E-10
3.531E+0	2.611E-10
3.532E+0	2.610E-10
3.533E+0	2.604E-10
3.534E+0	2.606E-10
3.535E+0	2.610E-10
3.536E+0	2.607E-10
3.537E+0	2.604E-10
3.538E+0	2.607E-10
3.539E+0	2.604E-10
3.540E+0	2.602E-10
3.541E+0	2.604E-10
3.542E+0	2.603E-10
3.543E+0	2.603E-10
3.544E+0	2.600E-10
3.545E+0	2.604E-10
3.546E+0	2.609E-10
3.547E+0	2.603E-10
3.548E+0	2.598E-10
3.549E+0	2.602E-10
3.550E+0	2.597E-10
3.551E+0	2.598E-10
3.552E+0	2.604E-10
3.553E+0	2.603E-10
3.554E+0	2.601E-10
3.555E+0	2.601E-10
3.556E+0	2.608E-10
3.557E+0	2.605E-10
3.558E+0	2.605E-10
3.559E+0	2.607E-10
3.560E+0	2.604E-10
3.561E+0	2.600E-10
3.562E+0	2.608E-10
3.563E+0	2.607E-10
3.564E+0	2.604E-10
3.565E+0	2.608E-10
3.566E+0	2.611E-10
3.567E+0	2.611E-10
3.568E+0	2.609E-10
3.569E+0	2.619E-10
3.570E+0	2.620E-10
3.571E+0	2.618E-10
3.572E+0	2.619E-10
3.573E+0	2.625E-10
3.574E+0	2.622E-10
3.575E+0	2.619E-10
3.576E+0	2.626E-10
3.577E+0	2.629E-10
3.578E+0	2.621E-10
3.579E+0	2.624E-10
3.580E+0	2.626E-10
3.581E+0	2.621E-10
3.582E+0	2.616E-10
3.583E+0	2.624E-10
3.584E+0	2.627E-10
3.585E+0	2.619E-10
3.586E+0	2.620E-10
3.587E+0	2.623E-10
3.588E+0	2.623E-10
3.589E+0	2.619E-10
3.590E+0	2.622E-10
3.591E+0	2.626E-10
3.592E+0	2.629E-10
3.593E+0	2.625E-10
3.594E+0	2.628E-10
3.595E+0	2.630E-10
3.596E+0	2.626E-10
3.597E+0	2.625E-10
3.598E+0	2.626E-10
3.599E+0	2.628E-10
3.600E+0	2.619E-10
3.601E+0	2.621E-10
3.602E+0	2.627E-10
3.603E+0	2.623E-10
3.604E+0	2.626E-10
3.605E+0	2.628E-10
3.606E+0	2.629E-10
3.607E+0	2.628E-10
3.608E+0	2.627E-10
3.609E+0	2.625E-10
3.610E+0	2.630E-10
3.611E+0	2.626E-10
3.612E+0	2.622E-10
3.613E+0	2.628E-10
3.614E+0	2.627E-10
3.615E+0	2.623E-10
3.616E+0	2.624E-10
3.617E+0	2.628E-10
3.618E+0	2.628E-10
3.619E+0	2.624E-10
3.620E+0	2.630E-10
3.621E+0	2.631E-10
3.622E+0	2.625E-10
3.623E+0	2.626E-10
3.624E+0	2.627E-10
3.625E+0	2.625E-10
3.626E+0	2.627E-10
3.627E+0	2.632E-10
3.628E+0	2.630E-10
3.629E+0	2.626E-10
3.630E+0	2.628E-10
3.631E+0	2.628E-10
3.632E+0	2.628E-10
3.633E+0	2.624E-10
3.634E+0	2.626E-10
3.635E+0	2.631E-10
3.636E+0	2.630E-10
3.637E+0	2.628E-10
3.638E+0	2.633E-10
3.639E+0	2.631E-10
3.640E+0	2.630E-10
3.641E+0	2.632E-10
3.642E+0	2.638E-10
3.643E+0	2.635E-10
3.644E+0	2.633E-10
3.645E+0	2.642E-10
3.646E+0	2.644E-10
3.647E+0	2.639E-10
3.648E+0	2.643E-10
3.649E+0	2.650E-10
3.650E+0	2.648E-10
3.651E+0	2.646E-10
3.652E+0	2.655E-10
3.653E+0	2.658E-10
3.654E+0	2.654E-10
3.655E+0	2.661E-10
3.656E+0	2.662E-10
3.657E+0	2.660E-10
3.658E+0	2.661E-10
3.659E+0	2.668E-10
3.660E+0	2.670E-10
3.661E+0	2.669E-10
3.662E+0	2.669E-10
3.663E+0	2.676E-10
3.664E+0	2.674E-10
3.665E+0	2.676E-10
3.666E+0	2.679E-10
3.667E+0	2.681E-10
3.668E+0	2.677E-10
3.669E+0	2.675E-10
3.670E+0	2.686E-10
3.671E+0	2.688E-10
3.672E+0	2.687E-10
3.673E+0	2.685E-10
3.674E+0	2.692E-10
3.675E+0	2.690E-10
3.676E+0	2.685E-10
3.677E+0	2.688E-10
3.678E+0	2.690E-10
3.679E+0	2.692E-10
3.680E+0	2.685E-10
3.681E+0	2.687E-10
3.682E+0	2.691E-10
3.683E+0	2.692E-10
3.684E+0	2.685E-10
3.685E+0	2.688E-10
3.686E+0	2.688E-10
3.687E+0	2.688E-10
3.688E+0	2.685E-10
3.689E+0	2.685E-10
3.690E+0	2.686E-10
3.691E+0	2.682E-10
3.692E+0	2.676E-10
3.693E+0	2.681E-10
3.694E+0	2.680E-10
3.695E+0	2.674E-10
3.696E+0	2.670E-10
3.697E+0	2.674E-10
3.698E+0	2.675E-10
3.699E+0	2.670E-10
3.700E+0	2.667E-10
3.701E+0	2.673E-10
3.702E+0	2.669E-10
3.703E+0	2.664E-10
3.704E+0	2.665E-10
3.705E+0	2.668E-10
3.706E+0	2.664E-10
3.707E+0	2.658E-10
3.708E+0	2.660E-10
3.709E+0	2.663E-10
3.710E+0	2.658E-10
3.711E+0	2.653E-10
3.712E+0	2.656E-10
3.713E+0	2.655E-10
3.714E+0	2.649E-10
3.715E+0	2.649E-10
3.716E+0	2.646E-10
3.717E+0	2.644E-10
3.718E+0	2.638E-10
3.719E+0	2.645E-10
3.720E+0	2.644E-10
3.721E+0	2.640E-10
3.722E+0	2.633E-10
3.723E+0	2.640E-10
3.724E+0	2.634E-10
3.725E+0	2.627E-10
3.726E+0	2.634E-10
3.727E+0	2.636E-10
3.728E+0	2.634E-10
3.729E+0	2.634E-10
3.730E+0	2.639E-10
3.731E+0	2.640E-10
3.732E+0	2.639E-10
3.733E+0	2.636E-10
3.734E+0	2.642E-10
3.735E+0	2.644E-10
3.736E+0	2.641E-10
3.737E+0	2.647E-10
3.738E+0	2.645E-10
3.739E+0	2.645E-10
3.740E+0	2.651E-10
3.741E+0	2.660E-10
3.742E+0	2.656E-10
3.743E+0	2.653E-10
3.744E+0	2.662E-10
3.745E+0	2.665E-10
3.746E+0	2.664E-10
3.747E+0	2.668E-10
3.748E+0	2.673E-10
3.749E+0	2.675E-10
3.750E+0	2.669E-10
3.751E+0	2.672E-10
3.752E+0	2.674E-10
3.753E+0	2.670E-10
3.754E+0	2.672E-10
3.755E+0	2.680E-10
3.756E+0	2.686E-10
3.757E+0	2.680E-10
3.758E+0	2.686E-10
3.759E+0	2.691E-10
3.760E+0	2.695E-10
3.761E+0	2.694E-10
3.762E+0	2.701E-10
3.763E+0	2.709E-10
3.764E+0	2.710E-10
3.765E+0	2.709E-10
3.766E+0	2.717E-10
3.767E+0	2.719E-10
3.768E+0	2.716E-10
3.769E+0	2.718E-10
3.770E+0	2.726E-10
3.771E+0	2.721E-10
3.772E+0	2.719E-10
3.773E+0	2.722E-10
3.774E+0	2.728E-10
3.775E+0	2.720E-10
3.776E+0	2.718E-10
3.777E+0	2.720E-10
3.778E+0	2.721E-10
3.779E+0	2.716E-10
3.780E+0	2.711E-10
3.781E+0	2.704E-10
3.782E+0	2.707E-10
3.783E+0	2.705E-10
3.784E+0	2.697E-10
3.785E+0	2.697E-10
3.786E+0	2.698E-10
3.787E+0	2.691E-10
3.788E+0	2.687E-10
3.789E+0	2.681E-10
3.790E+0	2.675E-10
3.791E+0	2.669E-10
3.792E+0	2.666E-10
3.793E+0	2.669E-10
3.794E+0	2.664E-10
3.795E+0	2.657E-10
3.796E+0	2.657E-10
3.797E+0	2.653E-10
3.798E+0	2.644E-10
3.799E+0	2.635E-10
3.800E+0	2.638E-10
3.801E+0	2.633E-10
3.802E+0	2.624E-10
3.803E+0	2.620E-10
3.804E+0	2.618E-10
3.805E+0	2.613E-10
3.806E+0	2.602E-10
3.807E+0	2.598E-10
3.808E+0	2.596E-10
3.809E+0	2.588E-10
3.810E+0	2.583E-10
3.811E+0	2.577E-10
3.812E+0	2.569E-10
3.813E+0	2.559E-10
3.814E+0	2.555E-10
3.815E+0	2.549E-10
3.816E+0	2.537E-10
3.817E+0	2.531E-10
3.818E+0	2.528E-10
3.819E+0	2.519E-10
3.820E+0	2.508E-10
3.821E+0	2.501E-10
3.822E+0	2.497E-10
3.823E+0	2.492E-10
3.824E+0	2.481E-10
3.825E+0	2.478E-10
3.826E+0	2.473E-10
3.827E+0	2.465E-10
3.828E+0	2.461E-10
3.829E+0	2.460E-10
3.830E+0	2.459E-10
3.831E+0	2.453E-10
3.832E+0	2.450E-10
3.833E+0	2.451E-10
3.834E+0	2.452E-10
3.835E+0	2.447E-10
3.836E+0	2.444E-10
3.837E+0	2.450E-10
3.838E+0	2.446E-10
3.839E+0	2.443E-10
3.840E+0	2.450E-10
3.841E+0	2.453E-10
3.842E+0	2.453E-10
3.843E+0	2.458E-10
3.844E+0	2.465E-10
3.845E+0	2.464E-10
3.846E+0	2.471E-10
3.847E+0	2.480E-10
3.848E+0	2.490E-10
3.849E+0	2.494E-10
3.850E+0	2.503E-10
3.851E+0	2.510E-10
3.852E+0	2.521E-10
3.853E+0	2.529E-10
3.854E+0	2.543E-10
3.855E+0	2.550E-10
3.856E+0	2.556E-10
3.857E+0	2.567E-10
3.858E+0	2.576E-10
3.859E+0	2.579E-10
3.860E+0	2.586E-10
3.861E+0	2.597E-10
3.862E+0	2.598E-10
3.863E+0	2.603E-10
3.864E+0	2.608E-10
3.865E+0	2.606E-10
3.866E+0	2.606E-10
3.867E+0	2.612E-10
3.868E+0	2.608E-10
3.869E+0	2.601E-10
3.870E+0	2.603E-10
3.871E+0	2.598E-10
3.872E+0	2.590E-10
3.873E+0	2.587E-10
3.874E+0	2.589E-10
3.875E+0	2.581E-10
3.876E+0	2.575E-10
3.877E+0	2.577E-10
3.878E+0	2.573E-10
3.879E+0	2.568E-10
3.880E+0	2.566E-10
3.881E+0	2.566E-10
3.882E+0	2.557E-10
3.883E+0	2.550E-10
3.884E+0	2.548E-10
3.885E+0	2.544E-10
3.886E+0	2.533E-10
3.887E+0	2.525E-10
3.888E+0	2.520E-10
3.889E+0	2.512E-10
3.890E+0	2.501E-10
3.891E+0	2.493E-10
3.892E+0	2.490E-10
3.893E+0	2.482E-10
3.894E+0	2.474E-10
3.895E+0	2.473E-10
3.896E+0	2.466E-10
3.897E+0	2.458E-10
3.898E+0	2.459E-10
3.899E+0	2.458E-10
3.900E+0	2.455E-10
3.901E+0	2.452E-10
3.902E+0	2.459E-10
3.903E+0	2.460E-10
3.904E+0	2.462E-10
3.905E+0	2.471E-10
3.906E+0	2.475E-10
3.907E+0	2.475E-10
3.908E+0	2.481E-10
3.909E+0	2.490E-10
3.910E+0	2.497E-10
3.911E+0	2.496E-10
3.912E+0	2.504E-10
3.913E+0	2.513E-10
3.914E+0	2.521E-10
3.915E+0	2.518E-10
3.916E+0	2.529E-10
3.917E+0	2.535E-10
3.918E+0	2.535E-10
3.919E+0	2.533E-10
3.920E+0	2.540E-10
3.921E+0	2.543E-10
3.922E+0	2.541E-10
3.923E+0	2.542E-10
3.924E+0	2.545E-10
3.925E+0	2.540E-10
3.926E+0	2.538E-10
3.927E+0	2.542E-10
3.928E+0	2.538E-10
3.929E+0	2.531E-10
3.930E+0	2.528E-10
3.931E+0	2.530E-10
3.932E+0	2.516E-10
3.933E+0	2.507E-10
3.934E+0	2.499E-10
3.935E+0	2.495E-10
3.936E+0	2.483E-10
3.937E+0	2.472E-10
3.938E+0	2.466E-10
3.939E+0	2.451E-10
3.940E+0	2.435E-10
3.941E+0	2.428E-10
3.942E+0	2.415E-10
3.943E+0	2.402E-10
3.944E+0	2.376E-10
3.945E+0	2.367E-10
3.946E+0	2.346E-10
3.947E+0	2.321E-10
3.948E+0	2.304E-10
3.949E+0	2.289E-10
3.950E+0	2.262E-10
3.951E+0	2.234E-10
3.952E+0	2.215E-10
3.953E+0	2.192E-10
3.954E+0	2.168E-10
3.955E+0	2.145E-10
3.956E+0	2.120E-10
3.957E+0	2.091E-10
3.958E+0	2.071E-10
3.959E+0	2.044E-10
3.960E+0	2.010E-10
3.961E+0	1.980E-10
3.962E+0	1.961E-10
3.963E+0	1.924E-10
3.964E+0	1.893E-10
3.965E+0	1.867E-10
3.966E+0	1.840E-10
3.967E+0	1.807E-10
3.968E+0	1.779E-10
3.969E+0	1.747E-10
3.970E+0	1.709E-10
3.971E+0	1.681E-10
3.972E+0	1.652E-10
3.973E+0	1.616E-10
3.974E+0	1.582E-10
3.975E+0	1.554E-10
3.976E+0	1.523E-10
3.977E+0	1.489E-10
3.978E+0	1.450E-10
3.979E+0	1.419E-10
3.980E+0	1.381E-10
3.981E+0	1.342E-10
3.982E+0	1.298E-10
3.983E+0	1.268E-10
3.984E+0	1.229E-10
3.985E+0	1.186E-10
3.986E+0	1.142E-10
3.987E+0	1.102E-10
3.988E+0	1.067E-10
3.989E+0	1.023E-10
3.990E+0	9.800E-11
3.991E+0	9.365E-11
3.992E+0	9.025E-11
3.993E+0	8.581E-11
3.994E+0	8.136E-11
3.995E+0	7.705E-11
3.996E+0	7.377E-11
3.997E+0	6.875E-11
3.998E+0	6.431E-11
3.999E+0	5.977E-11
4.000E+0	5.532E-11
4.001E+0	5.156E-11
4.002E+0	4.679E-11
4.003E+0	4.204E-11
4.004E+0	3.699E-11
4.005E+0	3.311E-11
4.006E+0	2.824E-11
4.007E+0	2.314E-11
4.008E+0	1.832E-11
4.009E+0	1.438E-11
4.010E+0	1.013E-11
4.011E+0	6.216E-12
4.012E+0	3.067E-12
4.013E+0	1.790E-12
4.014E+0	1.362E-12
4.015E+0	1.137E-12
4.016E+0	8.754E-13
4.017E+0	7.527E-13
4.018E+0	6.342E-13
4.019E+0	4.786E-13
4.020E+0	3.722E-13
4.021E+0	1.863E-13
4.022E+0	1.052E-13
4.023E+0	9.670E-15
4.024E+0	-2.353E-14
4.025E+0	-1.463E-13
4.026E+0	-1.484E-13
4.027E+0	-1.434E-13
4.028E+0	-2.410E-13
4.029E+0	-1.750E-13
4.030E+0	-1.943E-13
4.031E+0	-2.406E-13
4.032E+0	-1.975E-13
4.033E+0	-1.779E-13
4.034E+0	-1.920E-13
4.035E+0	-2.240E-13
4.036E+0	-2.223E-13
4.037E+0	-2.131E-13
4.038E+0	-1.951E-13
4.039E+0	-2.125E-13
4.040E+0	-1.937E-13
4.041E+0	-2.043E-13
4.042E+0	-2.045E-13
4.043E+0	-2.146E-13
4.044E+0	-2.127E-13
4.045E+0	-1.891E-13
4.046E+0	-1.959E-13
4.047E+0	-2.029E-13
4.048E+0	-2.484E-13
4.049E+0	-1.793E-13
4.050E+0	-1.258E-13
4.051E+0	-1.719E-13
4.052E+0	-1.807E-13
4.053E+0	-2.414E-13
4.054E+0	-1.834E-13
4.055E+0	-1.947E-13
4.056E+0	-1.764E-13
4.057E+0	-2.226E-13
4.058E+0	-2.037E-13
4.059E+0	-2.199E-13
4.060E+0	-1.781E-13
4.061E+0	-2.344E-13
4.062E+0	-1.781E-13
4.063E+0	-2.180E-13
4.064E+0	-2.201E-13
4.065E+0	-1.920E-13
4.066E+0	-2.047E-13
4.067E+0	-1.873E-13
4.068E+0	-1.715E-13
4.069E+0	-1.643E-13
4.070E+0	-2.100E-13
4.071E+0	-2.336E-13
4.072E+0	-2.053E-13
4.073E+0	-2.310E-13
4.074E+0	-1.973E-13
4.075E+0	-1.611E-13
4.076E+0	-2.490E-13
4.077E+0	-2.375E-13
4.078E+0	-1.799E-13
4.079E+0	-1.912E-13
4.080E+0	-2.486E-13
4.081E+0	-2.379E-13
4.082E+0	-1.908E-13
4.083E+0	-2.234E-13
4.084E+0	-1.998E-13
4.085E+0	-2.127E-13
4.086E+0	-1.826E-13
4.087E+0	-1.699E-13
4.088E+0	-2.053E-13
4.089E+0	-2.412E-13
4.090E+0	-2.471E-13
4.091E+0	-1.978E-13
4.092E+0	-1.764E-13
4.093E+0	-2.488E-13
4.094E+0	-2.420E-13
4.095E+0	-2.238E-13
4.096E+0	-2.115E-13
4.097E+0	-1.949E-13
4.098E+0	-2.094E-13
4.099E+0	-1.982E-13
4.100E+0	-2.021E-13
4.101E+0	-1.930E-13
4.102E+0	-2.316E-13
4.103E+0	-1.969E-13
4.104E+0	-1.672E-13
4.105E+0	-2.213E-13
4.106E+0	-2.355E-13
4.107E+0	-2.303E-13
4.108E+0	-1.695E-13
4.109E+0	-1.793E-13
4.110E+0	-1.982E-13
4.111E+0	-1.793E-13
4.112E+0	-2.098E-13
4.113E+0	-1.822E-13
4.114E+0	-1.949E-13
4.115E+0	-1.371E-13
4.116E+0	-2.060E-13
4.117E+0	-1.744E-13
4.118E+0	-1.855E-13
4.119E+0	-2.349E-13
4.120E+0	-2.021E-13
4.121E+0	-1.978E-13
4.122E+0	-2.291E-13
4.123E+0	-1.982E-13
4.124E+0	-1.223E-13
4.125E+0	-2.156E-13
4.126E+0	-2.320E-13
4.127E+0	-1.756E-13
4.128E+0	-1.965E-13
4.129E+0	-1.527E-13
4.130E+0	-1.758E-13
4.131E+0	-2.041E-13
4.132E+0	-2.182E-13
4.133E+0	-1.746E-13
4.134E+0	-1.408E-13
4.135E+0	-1.684E-13
4.136E+0	-2.674E-13
